wavenumbers   absorbance
399.371407  	47.693556 
400.807994  	47.059977 
402.244582  	48.819368 
403.681170  	50.351271 
405.117758  	52.635572 
406.554346  	54.632150 
407.990933  	55.287593 
409.427521  	57.180623 
410.864109  	60.327991 
412.300697  	62.637655 
413.737285  	64.346255 
415.173872  	66.146314 
416.610460  	68.354364 
418.047048  	70.074888 
419.483636  	70.253513 
420.920224  	70.910892 
422.356811  	70.896299 
423.793399  	69.873099 
425.229987  	70.436025 
426.666575  	71.453540 
428.103163  	71.262854 
429.539750  	71.467679 
430.976338  	71.959985 
432.412926  	71.296416 
433.849514  	70.957105 
435.286101  	71.407128 
436.722689  	71.211776 
438.159277  	71.661933 
439.595865  	72.807576 
441.032453  	72.781340 
442.469040  	72.666012 
443.905628  	72.879125 
445.342216  	72.515056 
446.778804  	73.012648 
448.215392  	73.808072 
449.651979  	73.599865 
451.088567  	73.776383 
452.525155  	74.672680 
453.961743  	75.468707 
455.398331  	76.046541 
456.834918  	76.429750 
458.271506  	76.714073 
459.708094  	76.842781 
461.144682  	76.865706 
462.581270  	76.677681 
464.017857  	76.317299 
465.454445  	76.691077 
466.891033  	77.291780 
468.327621  	77.302953 
469.764209  	77.615492 
471.200796  	77.856563 
472.637384  	77.822417 
474.073972  	78.253570 
475.510560  	78.192156 
476.947148  	77.964674 
478.383735  	78.180556 
479.820323  	77.950350 
481.256911  	77.842445 
482.693499  	77.963880 
484.130086  	77.635407 
485.566674  	77.697254 
487.003262  	77.859028 
488.439850  	77.678887 
489.876438  	77.751615 
491.313025  	77.531460 
492.749613  	77.015050 
494.186201  	76.827314 
495.622789  	76.697248 
497.059377  	76.682353 
498.495964  	76.782712 
499.932552  	76.930420 
501.369140  	77.168050 
502.805728  	77.037201 
504.242316  	76.815547 
505.678903  	76.733110 
507.115491  	76.651086 
508.552079  	76.931685 
509.988667  	76.985524 
511.425255  	76.718744 
512.861842  	76.930780 
514.298430  	76.895259 
515.735018  	76.497073 
517.171606  	76.593765 
518.608194  	76.645198 
520.044781  	76.499736 
521.481369  	76.460918 
522.917957  	76.385570 
524.354545  	76.662991 
525.791132  	77.118039 
527.227720  	77.214971 
528.664308  	77.215415 
530.100896  	77.103870 
531.537484  	77.053832 
532.974071  	77.275801 
534.410659  	77.258234 
535.847247  	77.106486 
537.283835  	77.206324 
538.720423  	77.270487 
540.157010  	77.264232 
541.593598  	77.415623 
543.030186  	77.616532 
544.466774  	77.632684 
545.903362  	77.512554 
547.339949  	77.492653 
548.776537  	77.557944 
550.213125  	77.677368 
551.649713  	77.838987 
553.086301  	77.861092 
554.522888  	77.893095 
555.959476  	78.101606 
557.396064  	78.237437 
558.832652  	78.267542 
560.269240  	78.357176 
561.705827  	78.439667 
563.142415  	78.456991 
564.579003  	78.569862 
566.015591  	78.884653 
567.452179  	79.244890 
568.888766  	79.475741 
570.325354  	79.550317 
571.761942  	79.615697 
573.198530  	79.899235 
574.635117  	80.329724 
576.071705  	80.793419 
577.508293  	81.279931 
578.944881  	81.658043 
580.381469  	82.110241 
581.818056  	82.788406 
583.254644  	83.424238 
584.691232  	83.995186 
586.127820  	84.430429 
587.564408  	84.706536 
589.000995  	85.131718 
590.437583  	85.455771 
591.874171  	85.424671 
593.310759  	85.245106 
594.747347  	84.771064 
596.183934  	84.111497 
597.620522  	83.554638 
599.057110  	82.949298 
600.493698  	82.643543 
601.930286  	83.088690 
603.366873  	83.986175 
604.803461  	85.067475 
606.240049  	86.061653 
607.676637  	86.757622 
609.113225  	87.192231 
610.549812  	87.393147 
611.986400  	87.443497 
613.422988  	87.285372 
614.859576  	87.068078 
616.296163  	87.028271 
617.732751  	86.922263 
619.169339  	86.783823 
620.605927  	86.724569 
622.042515  	86.494800 
623.479102  	86.272770 
624.915690  	86.180283 
626.352278  	86.134477 
627.788866  	86.214702 
629.225454  	86.181124 
630.662041  	86.088338 
632.098629  	86.151984 
633.535217  	86.161893 
634.971805  	86.281671 
636.408393  	86.459233 
637.844980  	86.421315 
639.281568  	86.502632 
640.718156  	86.648718 
642.154744  	86.772682 
643.591332  	86.875445 
645.027919  	86.541300 
646.464507  	86.237602 
647.901095  	86.010678 
649.337683  	85.188649 
650.774271  	84.465357 
652.210858  	83.923829 
653.647446  	82.736043 
655.084034  	80.738617 
656.520622  	77.727113 
657.957210  	74.175783 
659.393797  	71.326771 
660.830385  	70.396971 
662.266973  	70.977509 
663.703561  	71.867691 
665.140148  	72.425373 
666.576736  	72.963408 
668.013324  	73.426659 
669.449912  	72.985311 
670.886500  	72.754843 
672.323087  	72.544183 
673.759675  	72.138462 
675.196263  	71.654090 
676.632851  	70.865146 
678.069439  	69.969885 
679.506026  	69.107842 
680.942614  	68.087582 
682.379202  	67.041865 
683.815790  	65.936640 
685.252378  	65.038323 
686.688965  	64.549108 
688.125553  	64.254313 
689.562141  	64.305242 
690.998729  	64.565950 
692.435317  	64.840940 
693.871904  	65.130189 
695.308492  	65.251189 
696.745080  	65.320940 
698.181668  	65.379927 
699.618256  	65.299273 
701.054843  	65.334458 
702.491431  	65.523479 
703.928019  	65.875777 
705.364607  	66.616650 
706.801194  	67.623498 
708.237782  	68.894531 
709.674370  	70.410155 
711.110958  	71.846043 
712.547546  	73.092338 
713.984133  	74.033530 
715.420721  	74.485888 
716.857309  	74.640225 
718.293897  	74.643238 
719.730485  	74.413081 
721.167072  	74.062845 
722.603660  	73.618853 
724.040248  	73.060135 
725.476836  	72.465970 
726.913424  	71.777360 
728.350011  	71.058025 
729.786599  	70.353112 
731.223187  	69.531332 
732.659775  	68.627853 
734.096363  	67.640284 
735.532950  	66.491461 
736.969538  	65.227369 
738.406126  	63.894051 
739.842714  	62.505836 
741.279302  	60.983056 
742.715889  	59.310049 
744.152477  	57.480509 
745.589065  	55.307208 
747.025653  	52.773221 
748.462241  	49.854995 
749.898828  	46.548031 
751.335416  	43.221603 
752.772004  	40.155520 
754.208592  	37.862550 
755.645179  	36.902128 
757.081767  	37.151167 
758.518355  	38.374156 
759.954943  	39.913144 
761.391531  	40.974944 
762.828118  	41.365040 
764.264706  	40.941621 
765.701294  	39.753420 
767.137882  	38.052910 
768.574470  	35.877408 
770.011057  	33.446326 
771.447645  	30.787230 
772.884233  	27.842625 
774.320821  	25.002215 
775.757409  	22.199348 
777.193996  	19.388964 
778.630584  	16.849981 
780.067172  	14.499715 
781.503760  	12.608122 
782.940348  	11.178592 
784.376935  	9.970485 
785.813523  	9.315982 
787.250111  	8.996053 
788.686699  	9.009465 
790.123287  	9.619602 
791.559874  	10.349093 
792.996462  	11.341754 
794.433050  	12.652589 
795.869638  	13.937030 
797.306225  	15.572720 
798.742813  	17.419985 
800.179401  	19.317059 
801.615989  	21.578829 
803.052577  	23.899868 
804.489164  	26.237102 
805.925752  	28.644973 
807.362340  	30.880045 
808.798928  	33.075358 
810.235516  	35.109335 
811.672103  	36.888965 
813.108691  	38.551843 
814.545279  	39.908271 
815.981867  	41.146992 
817.418455  	42.518557 
818.855042  	44.043288 
820.291630  	46.096699 
821.728218  	48.641748 
823.164806  	51.375930 
824.601394  	54.171069 
826.037981  	56.643353 
827.474569  	58.590669 
828.911157  	59.898284 
830.347745  	60.390014 
831.784333  	60.253542 
833.220920  	59.579856 
834.657508  	58.314081 
836.094096  	56.677541 
837.530684  	54.792749 
838.967272  	52.908982 
840.403859  	51.419457 
841.840447  	50.388302 
843.277035  	50.041141 
844.713623  	50.502128 
846.150210  	51.559895 
847.586798  	53.057952 
849.023386  	54.729992 
850.459974  	56.411845 
851.896562  	57.896371 
853.333149  	58.910064 
854.769737  	59.522056 
856.206325  	59.677064 
857.642913  	59.286183 
859.079501  	58.621591 
860.516088  	57.833316 
861.952676  	57.099259 
863.389264  	56.728986 
864.825852  	56.825161 
866.262440  	57.536337 
867.699027  	58.822700 
869.135615  	60.556271 
870.572203  	62.758327 
872.008791  	65.167559 
873.445379  	67.591647 
874.881966  	69.960652 
876.318554  	72.117549 
877.755142  	74.105573 
879.191730  	75.951335 
880.628318  	77.632817 
882.064905  	79.187191 
883.501493  	80.563300 
884.938081  	81.780816 
886.374669  	82.859154 
887.811256  	83.762502 
889.247844  	84.560329 
890.684432  	85.251844 
892.121020  	85.827367 
893.557608  	86.373640 
894.994195  	86.855469 
896.430783  	87.232120 
897.867371  	87.542716 
899.303959  	87.771514 
900.740547  	87.914137 
902.177134  	87.953707 
903.613722  	87.884790 
905.050310  	87.800404 
906.486898  	87.703801 
907.923486  	87.566984 
909.360073  	87.497935 
910.796661  	87.565712 
912.233249  	87.797446 
913.669837  	88.195494 
915.106425  	88.676137 
916.543012  	89.199037 
917.979600  	89.722235 
919.416188  	90.181600 
920.852776  	90.600155 
922.289364  	90.957550 
923.725951  	91.171888 
925.162539  	91.307330 
926.599127  	91.462349 
928.035715  	91.564525 
929.472303  	91.547359 
930.908890  	91.496384 
932.345478  	91.473364 
933.782066  	91.439081 
935.218654  	91.372920 
936.655241  	91.254242 
938.091829  	91.057590 
939.528417  	90.863626 
940.965005  	90.711475 
942.401593  	90.489183 
943.838180  	90.168672 
945.274768  	89.823892 
946.711356  	89.442254 
948.147944  	88.969871 
949.584532  	88.409858 
951.021119  	87.796097 
952.457707  	87.138596 
953.894295  	86.454208 
955.330883  	85.759795 
956.767471  	85.020180 
958.204058  	84.281408 
959.640646  	83.566461 
961.077234  	82.737654 
962.513822  	81.810957 
963.950410  	80.839917 
965.386997  	79.707528 
966.823585  	78.439005 
968.260173  	77.084375 
969.696761  	75.586817 
971.133349  	73.962772 
972.569936  	72.207041 
974.006524  	70.348182 
975.443112  	68.367494 
976.879700  	66.164622 
978.316288  	63.844743 
979.752875  	61.424870 
981.189463  	58.854077 
982.626051  	56.205307 
984.062639  	53.359791 
985.499226  	50.393255 
986.935814  	47.450267 
988.372402  	44.377693 
989.808990  	41.289920 
991.245578  	38.185293 
992.682165  	34.969140 
994.118753  	31.876092 
995.555341  	28.806401 
996.991929  	25.817710 
998.428517  	23.108370 
999.865104  	20.481029 
1001.301692  	18.180880 
1002.738280  	16.277685 
1004.174868  	14.595423 
1005.611456  	13.425375 
1007.048043  	12.593906 
1008.484631  	12.062070 
1009.921219  	12.059179 
1011.357807  	12.310842 
1012.794395  	12.920551 
1014.230982  	13.802676 
1015.667570  	14.680500 
1017.104158  	15.818157 
1018.540746  	16.963503 
1019.977334  	17.976509 
1021.413921  	19.047324 
1022.850509  	19.917053 
1024.287097  	20.763417 
1025.723685  	21.624287 
1027.160272  	22.237452 
1028.596860  	22.876950 
1030.033448  	23.396586 
1031.470036  	23.713822 
1032.906624  	24.111295 
1034.343211  	24.346629 
1035.779799  	24.517486 
1037.216387  	24.720875 
1038.652975  	24.735884 
1040.089563  	24.814114 
1041.526150  	24.830539 
1042.962738  	24.716399 
1044.399326  	24.743938 
1045.835914  	24.598754 
1047.272502  	24.411927 
1048.709089  	24.381501 
1050.145677  	24.217588 
1051.582265  	24.176532 
1053.018853  	24.172829 
1054.455441  	24.042790 
1055.892028  	24.091695 
1057.328616  	24.066446 
1058.765204  	24.064024 
1060.201792  	24.263723 
1061.638380  	24.319864 
1063.074967  	24.494167 
1064.511555  	24.747614 
1065.948143  	24.901622 
1067.384731  	25.281134 
1068.821319  	25.569112 
1070.257906  	25.817084 
1071.694494  	26.330626 
1073.131082  	26.749024 
1074.567670  	27.273906 
1076.004257  	27.933112 
1077.440845  	28.495465 
1078.877433  	29.282175 
1080.314021  	30.080433 
1081.750609  	30.867629 
1083.187196  	31.894631 
1084.623784  	32.866196 
1086.060372  	33.971859 
1087.496960  	35.252090 
1088.933548  	36.498282 
1090.370135  	37.968067 
1091.806723  	39.432584 
1093.243311  	40.895349 
1094.679899  	42.634850 
1096.116487  	44.326932 
1097.553074  	46.080944 
1098.989662  	47.967615 
1100.426250  	49.753733 
1101.862838  	51.651941 
1103.299426  	53.525923 
1104.736013  	55.287338 
1106.172601  	57.163698 
1107.609189  	58.961944 
1109.045777  	60.699678 
1110.482365  	62.445827 
1111.918952  	64.061008 
1113.355540  	65.679727 
1114.792128  	67.233370 
1116.228716  	68.658327 
1117.665303  	70.085901 
1119.101891  	71.365630 
1120.538479  	72.525045 
1121.975067  	73.665824 
1123.411655  	74.680670 
1124.848242  	75.651836 
1126.284830  	76.557636 
1127.721418  	77.318629 
1129.158006  	78.040972 
1130.594594  	78.662340 
1132.031181  	79.170027 
1133.467769  	79.644462 
1134.904357  	80.035934 
1136.340945  	80.423559 
1137.777533  	80.860064 
1139.214120  	81.306509 
1140.650708  	81.795945 
1142.087296  	82.254402 
1143.523884  	82.663108 
1144.960472  	83.050434 
1146.397059  	83.350034 
1147.833647  	83.630492 
1149.270235  	83.900026 
1150.706823  	84.086602 
1152.143411  	84.279599 
1153.579998  	84.454566 
1155.016586  	84.566530 
1156.453174  	84.704510 
1157.889762  	84.834399 
1159.326350  	84.935546 
1160.762937  	85.040958 
1162.199525  	85.127492 
1163.636113  	85.214212 
1165.072701  	85.272925 
1166.509288  	85.305618 
1167.945876  	85.376319 
1169.382464  	85.429145 
1170.819052  	85.463935 
1172.255640  	85.526996 
1173.692227  	85.574548 
1175.128815  	85.617271 
1176.565403  	85.668143 
1178.001991  	85.723671 
1179.438579  	85.785134 
1180.875166  	85.816124 
1182.311754  	85.865084 
1183.748342  	85.938716 
1185.184930  	85.984337 
1186.621518  	86.056934 
1188.058105  	86.137719 
1189.494693  	86.209445 
1190.931281  	86.335703 
1192.367869  	86.467386 
1193.804457  	86.610485 
1195.241044  	86.793723 
1196.677632  	86.961737 
1198.114220  	87.165801 
1199.550808  	87.409540 
1200.987396  	87.642769 
1202.423983  	87.917344 
1203.860571  	88.220730 
1205.297159  	88.533025 
1206.733747  	88.868907 
1208.170334  	89.200471 
1209.606922  	89.558958 
1211.043510  	89.946475 
1212.480098  	90.311804 
1213.916686  	90.664442 
1215.353273  	91.005050 
1216.789861  	91.329350 
1218.226449  	91.643541 
1219.663037  	91.926373 
1221.099625  	92.172787 
1222.536212  	92.382258 
1223.972800  	92.549358 
1225.409388  	92.673537 
1226.845976  	92.752554 
1228.282564  	92.799500 
1229.719151  	92.791926 
1231.155739  	92.690569 
1232.592327  	92.514807 
1234.028915  	92.262261 
1235.465503  	91.893667 
1236.902090  	91.394093 
1238.338678  	90.724350 
1239.775266  	89.829893 
1241.211854  	88.618468 
1242.648442  	86.915228 
1244.085029  	84.557334 
1245.521617  	81.254520 
1246.958205  	76.560339 
1248.394793  	70.379026 
1249.831381  	63.171627 
1251.267968  	56.147223 
1252.704556  	50.692849 
1254.141144  	46.727361 
1255.577732  	43.841887 
1257.014319  	42.168163 
1258.450907  	41.921466 
1259.887495  	43.794630 
1261.324083  	47.792631 
1262.760671  	53.530833 
1264.197258  	60.693604 
1265.633846  	68.142603 
1267.070434  	74.968717 
1268.507022  	80.633213 
1269.943610  	84.819395 
1271.380197  	87.817860 
1272.816785  	89.953723 
1274.253373  	91.446316 
1275.689961  	92.588523 
1277.126549  	93.476892 
1278.563136  	94.145074 
1279.999724  	94.681686 
1281.436312  	95.087469 
1282.872900  	95.420429 
1284.309488  	95.738451 
1285.746075  	96.007135 
1287.182663  	96.247811 
1288.619251  	96.455843 
1290.055839  	96.609619 
1291.492427  	96.749885 
1292.929014  	96.874249 
1294.365602  	96.999637 
1295.802190  	97.142241 
1297.238778  	97.251657 
1298.675365  	97.343811 
1300.111953  	97.438658 
1301.548541  	97.514748 
1302.985129  	97.588394 
1304.421717  	97.651841 
1305.858304  	97.714387 
1307.294892  	97.788071 
1308.731480  	97.836969 
1310.168068  	97.897869 
1311.604656  	97.972457 
1313.041243  	98.003914 
1314.477831  	98.054781 
1315.914419  	98.144352 
1317.351007  	98.200644 
1318.787595  	98.221701 
1320.224182  	98.240946 
1321.660770  	98.296989 
1323.097358  	98.364955 
1324.533946  	98.395014 
1325.970534  	98.444419 
1327.407121  	98.506571 
1328.843709  	98.517117 
1330.280297  	98.522460 
1331.716885  	98.538141 
1333.153473  	98.554931 
1334.590060  	98.582395 
1336.026648  	98.591749 
1337.463236  	98.608108 
1338.899824  	98.606268 
1340.336412  	98.536592 
1341.772999  	98.522342 
1343.209587  	98.565859 
1344.646175  	98.580156 
1346.082763  	98.589998 
1347.519350  	98.600492 
1348.955938  	98.605420 
1350.392526  	98.608504 
1351.829114  	98.597393 
1353.265702  	98.603675 
1354.702289  	98.604620 
1356.138877  	98.586625 
1357.575465  	98.588974 
1359.012053  	98.583424 
1360.448641  	98.594493 
1361.885228  	98.586334 
1363.321816  	98.457911 
1364.758404  	98.408129 
1366.194992  	98.474312 
1367.631580  	98.464364 
1369.068167  	98.389274 
1370.504755  	98.351504 
1371.941343  	98.367155 
1373.377931  	98.359692 
1374.814519  	98.256261 
1376.251106  	98.236202 
1377.687694  	98.265506 
1379.124282  	98.185568 
1380.560870  	98.137143 
1381.997458  	98.093005 
1383.434045  	97.974523 
1384.870633  	97.959637 
1386.307221  	97.897230 
1387.743809  	97.636218 
1389.180396  	97.460321 
1390.616984  	97.327238 
1392.053572  	97.159379 
1393.490160  	96.920114 
1394.926748  	96.412118 
1396.363335  	95.989722 
1397.799923  	95.782281 
1399.236511  	95.416105 
1400.673099  	95.100069 
1402.109687  	95.030436 
1403.546274  	94.931512 
1404.982862  	94.704131 
1406.419450  	94.515362 
1407.856038  	94.403069 
1409.292626  	94.284338 
1410.729213  	94.179620 
1412.165801  	94.149931 
1413.602389  	94.219660 
1415.038977  	94.438058 
1416.475565  	94.813606 
1417.912152  	95.240476 
1419.348740  	95.558731 
1420.785328  	95.906048 
1422.221916  	96.425532 
1423.658504  	96.842778 
1425.095091  	97.039364 
1426.531679  	97.331562 
1427.968267  	97.579304 
1429.404855  	97.609455 
1430.841443  	97.677738 
1432.278030  	97.741435 
1433.714618  	97.841062 
1435.151206  	97.999257 
1436.587794  	97.742541 
1438.024381  	97.424813 
1439.460969  	97.494026 
1440.897557  	97.460929 
1442.334145  	97.350857 
1443.770733  	97.291387 
1445.207320  	97.293170 
1446.643908  	97.383360 
1448.080496  	97.361805 
1449.517084  	97.414259 
1450.953672  	97.644111 
1452.390259  	97.762850 
1453.826847  	97.946196 
1455.263435  	98.254131 
1456.700023  	98.194220 
1458.136611  	97.959504 
1459.573198  	98.105028 
1461.009786  	98.291885 
1462.446374  	98.524514 
1463.882962  	98.663326 
1465.319550  	98.573082 
1466.756137  	98.593831 
1468.192725  	98.726326 
1469.629313  	98.895270 
1471.065901  	99.077483 
1472.502489  	98.972510 
1473.939076  	98.803756 
1475.375664  	98.899206 
1476.812252  	98.896969 
1478.248840  	98.900332 
1479.685427  	99.032584 
1481.122015  	99.035760 
1482.558603  	98.964641 
1483.995191  	99.046205 
1485.431779  	99.141102 
1486.868366  	99.168967 
1488.304954  	99.220879 
1489.741542  	99.183181 
1491.178130  	99.023715 
1492.614718  	99.089624 
1494.051305  	99.308420 
1495.487893  	99.375492 
1496.924481  	99.223429 
1498.361069  	99.162431 
1499.797657  	99.163283 
1501.234244  	99.146180 
1502.670832  	99.247664 
1504.107420  	99.477009 
1505.544008  	99.608230 
1506.980596  	99.170335 
1508.417183  	98.866373 
1509.853771  	99.062240 
1511.290359  	99.181759 
1512.726947  	99.129411 
1514.163535  	99.220589 
1515.600122  	99.342128 
1517.036710  	99.145803 
1518.473298  	99.142145 
1519.909886  	99.424565 
1521.346474  	99.241998 
1522.783061  	98.939033 
1524.219649  	99.155139 
